2theta,intensity
10.0,1014.0
10.02,1020.0
10.04,1041.0
10.06,993.0
10.08,1039.0
10.1,993.0
10.12,962.0
10.14,1023.0
10.16,975.0
10.18,1053.0
10.2,1001.0
10.22,1054.0
10.24,1027.0
10.26,1025.0
10.28,1021.0
10.3,1087.0
10.32,1011.0
10.34,1029.0
10.36,1009.0
10.38,991.0
10.4,999.0
10.42,1031.0
10.44,1021.0
10.46,985.0
10.48,1013.0
10.5,1044.0
10.52,1010.0
10.54,1011.0
10.56,1025.0
10.58,968.0
10.6,957.0
10.62,968.0
10.64,979.0
10.66,1033.0
10.68,972.0
10.7,996.0
10.72,964.0
10.74,977.0
10.76,941.0
10.78,1036.0
10.8,955.0
10.82,959.0
10.84,973.0
10.86,940.0
10.88,1038.0
10.9,936.0
10.92,985.0
10.94,905.0
10.96,970.0
10.98,967.0
11.0,961.0
11.02,948.0
11.04,922.0
11.06,976.0
11.08,942.0
11.1,965.0
11.12,931.0
11.14,982.0
11.16,955.0
11.18,954.0
11.2,935.0
11.22,939.0
11.24,961.0
11.26,918.0
11.28,862.0
11.3,927.0
11.32,943.0
11.34,956.0
11.36,955.0
11.38,903.0
11.4,957.0
11.42,940.0
11.44,963.0
11.46,926.0
11.48,923.0
11.5,947.0
11.52,909.0
11.54,937.0
11.56,929.0
11.58,883.0
11.6,973.0
11.62,912.0
11.64,922.0
11.66,892.0
11.68,923.0
11.7,861.0
11.72,899.0
11.74,929.0
11.76,857.0
11.78,888.0
11.8,951.0
11.82,905.0
11.84,876.0
11.86,950.0
11.88,916.0
11.9,843.0
11.92,869.0
11.94,929.0
11.96,919.0
11.98,838.0
12.0,868.0
12.02,899.0
12.04,903.0
12.06,889.0
12.08,902.0
12.1,915.0
12.12,858.0
12.14,973.0
12.16,927.0
12.18,894.0
12.2,831.0
12.22,833.0
12.24,887.0
12.26,864.0
12.28,842.0
12.3,867.0
12.32,853.0
12.34,851.0
12.36,901.0
12.38,890.0
12.4,891.0
12.42,870.0
12.44,873.0
12.46,866.0
12.48,827.0
12.5,849.0
12.52,894.0
12.54,834.0
12.56,841.0
12.58,878.0
12.6,829.0
12.62,833.0
12.64,865.0
12.66,807.0
12.68,843.0
12.7,818.0
12.72,830.0
12.74,858.0
12.76,846.0
12.78,802.0
12.8,862.0
12.82,846.0
12.84,800.0
12.86,840.0
12.88,817.0
12.9,878.0
12.92,809.0
12.94,854.0
12.96,828.0
12.98,844.0
13.0,836.0
13.02,846.0
13.04,788.0
13.06,831.0
13.08,828.0
13.1,806.0
13.12,824.0
13.14,832.0
13.16,825.0
13.18,780.0
13.2,779.0
13.22,796.0
13.24,871.0
13.26,804.0
13.28,838.0
13.3,820.0
13.32,802.0
13.34,859.0
13.36,847.0
13.38,806.0
13.4,871.0
13.42,813.0
13.44,828.0
13.46,860.0
13.48,779.0
13.5,828.0
13.52,835.0
13.54,771.0
13.56,797.0
13.58,818.0
13.6,817.0
13.62,812.0
13.64,767.0
13.66,785.0
13.68,777.0
13.7,744.0
13.72,760.0
13.74,757.0
13.76,770.0
13.78,792.0
13.8,752.0
13.82,797.0
13.84,764.0
13.86,757.0
13.88,813.0
13.9,835.0
13.92,789.0
13.94,787.0
13.96,807.0
13.98,805.0
14.0,775.0
14.02,818.0
14.04,808.0
14.06,832.0
14.08,746.0
14.1,799.0
14.12,853.0
14.14,808.0
14.16,844.0
14.18,827.0
14.2,829.0
14.22,841.0
14.24,874.0
14.26,931.0
14.28,932.0
14.3,910.0
14.32,894.0
14.34,949.0
14.36,947.0
14.38,948.0
14.4,1064.0
14.42,1048.0
14.44,1165.0
14.46,1102.0
14.48,1159.0
14.5,1263.0
14.52,1297.0
14.54,1393.0
14.56,1447.0
14.58,1566.0
14.6,1696.0
14.62,1865.0
14.64,1960.0
14.66,2207.0
14.68,2347.0
14.7,2584.0
14.72,2801.0
14.74,2983.0
14.76,3372.0
14.78,3589.0
14.8,3925.0
14.82,4081.0
14.84,3918.0
14.86,3656.0
14.88,2984.0
14.9,2478.0
14.92,1854.0
14.94,1540.0
14.96,1343.0
14.98,1251.0
15.0,1116.0
15.02,1041.0
15.04,979.0
15.06,923.0
15.08,860.0
15.1,830.0
15.12,833.0
15.14,813.0
15.16,810.0
15.18,774.0
15.2,780.0
15.22,748.0
15.24,741.0
15.26,721.0
15.28,720.0
15.3,724.0
15.32,742.0
15.34,689.0
15.36,705.0
15.38,741.0
15.4,680.0
15.42,706.0
15.44,724.0
15.46,693.0
15.48,697.0
15.5,710.0
15.52,687.0
15.54,689.0
15.56,732.0
15.58,699.0
15.6,724.0
15.62,728.0
15.64,721.0
15.66,678.0
15.68,700.0
15.7,680.0
15.72,695.0
15.74,651.0
15.76,705.0
15.78,708.0
15.8,677.0
15.82,704.0
15.84,682.0
15.86,657.0
15.88,664.0
15.9,630.0
15.92,661.0
15.94,671.0
15.96,626.0
15.98,650.0
16.0,693.0
16.02,658.0
16.04,619.0
16.06,644.0
16.08,664.0
16.1,667.0
16.12,666.0
16.14,671.0
16.16,659.0
16.18,675.0
16.2,674.0
16.22,657.0
16.24,650.0
16.26,631.0
16.28,609.0
16.3,615.0
16.32,614.0
16.34,617.0
16.36,620.0
16.38,627.0
16.4,628.0
16.42,600.0
16.44,602.0
16.46,608.0
16.48,633.0
16.5,624.0
16.52,637.0
16.54,636.0
16.56,604.0
16.58,624.0
16.6,592.0
16.62,612.0
16.64,603.0
16.66,648.0
16.68,566.0
16.7,602.0
16.72,634.0
16.74,612.0
16.76,651.0
16.78,654.0
16.8,576.0
16.82,637.0
16.84,618.0
16.86,616.0
16.88,620.0
16.9,665.0
16.92,632.0
16.94,606.0
16.96,622.0
16.98,663.0
17.0,626.0
17.02,620.0
17.04,671.0
17.06,589.0
17.08,609.0
17.1,621.0
17.12,631.0
17.14,652.0
17.16,649.0
17.18,586.0
17.2,574.0
17.22,626.0
17.24,580.0
17.26,639.0
17.28,589.0
17.3,657.0
17.32,582.0
17.34,597.0
17.36,586.0
17.38,589.0
17.4,574.0
17.42,567.0
17.44,578.0
17.46,580.0
17.48,565.0
17.5,587.0
17.52,611.0
17.54,592.0
17.56,592.0
17.58,536.0
17.6,573.0
17.62,592.0
17.64,572.0
17.66,591.0
17.68,585.0
17.7,548.0
17.72,609.0
17.74,577.0
17.76,521.0
17.78,553.0
17.8,585.0
17.82,584.0
17.84,584.0
17.86,562.0
17.88,575.0
17.9,522.0
17.92,590.0
17.94,513.0
17.96,531.0
17.98,595.0
18.0,564.0
18.02,574.0
18.04,572.0
18.06,587.0
18.08,557.0
18.1,534.0
18.12,557.0
18.14,540.0
18.16,518.0
18.18,620.0
18.2,545.0
18.22,565.0
18.24,552.0
18.26,556.0
18.28,549.0
18.3,596.0
18.32,558.0
18.34,586.0
18.36,552.0
18.38,553.0
18.4,525.0
18.42,543.0
18.44,498.0
18.46,577.0
18.48,533.0
18.5,523.0
18.52,554.0
18.54,516.0
18.56,520.0
18.58,539.0
18.6,555.0
18.62,518.0
18.64,517.0
18.66,601.0
18.68,510.0
18.7,509.0
18.72,519.0
18.74,542.0
18.76,543.0
18.78,561.0
18.8,534.0
18.82,520.0
18.84,528.0
18.86,579.0
18.88,536.0
18.9,572.0
18.92,484.0
18.94,510.0
18.96,507.0
18.98,496.0
19.0,496.0
19.02,510.0
19.04,550.0
19.06,492.0
19.08,537.0
19.1,511.0
19.12,553.0
19.14,521.0
19.16,538.0
19.18,494.0
19.2,507.0
19.22,520.0
19.24,496.0
19.26,516.0
19.28,488.0
19.3,514.0
19.32,520.0
19.34,540.0
19.36,494.0
19.38,507.0
19.4,481.0
19.42,485.0
19.44,530.0
19.46,494.0
19.48,506.0
19.5,558.0
19.52,472.0
19.54,463.0
19.56,518.0
19.58,536.0
19.6,514.0
19.62,505.0
19.64,522.0
19.66,494.0
19.68,486.0
19.7,485.0
19.72,509.0
19.74,505.0
19.76,523.0
19.78,507.0
19.8,502.0
19.82,486.0
19.84,520.0
19.86,444.0
19.88,470.0
19.9,526.0
19.92,513.0
19.94,491.0
19.96,515.0
19.98,487.0
20.0,476.0
20.02,495.0
20.04,469.0
20.06,517.0
20.08,497.0
20.1,505.0
20.12,481.0
20.14,492.0
20.16,484.0
20.18,485.0
20.2,477.0
20.22,518.0
20.24,487.0
20.26,478.0
20.28,464.0
20.3,507.0
20.32,504.0
20.34,502.0
20.36,481.0
20.38,494.0
20.4,458.0
20.42,490.0
20.44,504.0
20.46,504.0
20.48,484.0
20.5,466.0
20.52,479.0
20.54,473.0
20.56,446.0
20.58,452.0
20.6,452.0
20.62,456.0
20.64,494.0
20.66,498.0
20.68,481.0
20.7,433.0
20.72,476.0
20.74,462.0
20.76,448.0
20.78,482.0
20.8,481.0
20.82,440.0
20.84,461.0
20.86,473.0
20.88,498.0
20.9,487.0
20.92,491.0
20.94,447.0
20.96,431.0
20.98,454.0
21.0,513.0
21.02,460.0
21.04,462.0
21.06,458.0
21.08,485.0
21.1,431.0
21.12,505.0
21.14,483.0
21.16,427.0
21.18,450.0
21.2,469.0
21.22,498.0
21.24,474.0
21.26,471.0
21.28,480.0
21.3,447.0
21.32,491.0
21.34,470.0
21.36,534.0
21.38,486.0
21.4,478.0
21.42,539.0
21.44,487.0
21.46,533.0
21.48,510.0
21.5,530.0
21.52,556.0
21.54,584.0
21.56,601.0
21.58,588.0
21.6,651.0
21.62,660.0
21.64,702.0
21.66,616.0
21.68,612.0
21.7,595.0
21.72,568.0
21.74,531.0
21.76,536.0
21.78,488.0
21.8,494.0
21.82,487.0
21.84,458.0
21.86,501.0
21.88,468.0
21.9,482.0
21.92,481.0
21.94,486.0
21.96,446.0
21.98,443.0
22.0,426.0
22.02,453.0
22.04,467.0
22.06,445.0
22.08,475.0
22.1,471.0
22.12,439.0
22.14,453.0
22.16,468.0
22.18,495.0
22.2,481.0
22.22,452.0
22.24,491.0
22.26,432.0
22.28,432.0
22.3,447.0
22.32,449.0
22.34,464.0
22.36,452.0
22.38,417.0
22.4,456.0
22.42,423.0
22.44,428.0
22.46,430.0
22.48,422.0
22.5,389.0
22.52,434.0
22.54,446.0
22.56,417.0
22.58,445.0
22.6,421.0
22.62,422.0
22.64,387.0
22.66,417.0
22.68,407.0
22.7,438.0
22.72,440.0
22.74,434.0
22.76,414.0
22.78,467.0
22.8,411.0
22.82,411.0
22.84,454.0
22.86,448.0
22.88,415.0
22.9,421.0
22.92,431.0
22.94,432.0
22.96,413.0
22.98,436.0
23.0,436.0
23.02,417.0
23.04,429.0
23.06,455.0
23.08,425.0
23.1,440.0
23.12,433.0
23.14,462.0
23.16,460.0
23.18,426.0
23.2,411.0
23.22,432.0
23.24,425.0
23.26,442.0
23.28,448.0
23.3,408.0
23.32,407.0
23.34,452.0
23.36,421.0
23.38,467.0
23.4,452.0
23.42,480.0
23.44,437.0
23.46,490.0
23.48,503.0
23.5,471.0
23.52,464.0
23.54,501.0
23.56,515.0
23.58,484.0
23.6,524.0
23.62,487.0
23.64,524.0
23.66,521.0
23.68,526.0
23.7,590.0
23.72,593.0
23.74,569.0
23.76,611.0
23.78,574.0
23.8,665.0
23.82,732.0
23.84,779.0
23.86,761.0
23.88,904.0
23.9,942.0
23.92,1029.0
23.94,1132.0
23.96,1202.0
23.98,1342.0
24.0,1516.0
24.02,1674.0
24.04,1914.0
24.06,2029.0
24.08,2364.0
24.1,2698.0
24.12,3075.0
24.14,3502.0
24.16,3913.0
24.18,4465.0
24.2,4720.0
24.22,5163.0
24.24,5439.0
24.26,5607.0
24.28,5507.0
24.3,5065.0
24.32,4485.0
24.34,4034.0
24.36,3475.0
24.38,2761.0
24.4,2410.0
24.42,2001.0
24.44,1768.0
24.46,1373.0
24.48,1258.0
24.5,1108.0
24.52,1012.0
24.54,945.0
24.56,814.0
24.58,759.0
24.6,764.0
24.62,638.0
24.64,623.0
24.66,606.0
24.68,567.0
24.7,543.0
24.72,566.0
24.74,554.0
24.76,561.0
24.78,512.0
24.8,514.0
24.82,497.0
24.84,465.0
24.86,478.0
24.88,475.0
24.9,483.0
24.92,474.0
24.94,457.0
24.96,455.0
24.98,438.0
25.0,453.0
25.02,452.0
25.04,404.0
25.06,400.0
25.08,426.0
25.1,406.0
25.12,444.0
25.14,424.0
25.16,440.0
25.18,404.0
25.2,403.0
25.22,433.0
25.24,424.0
25.26,425.0
25.28,416.0
25.3,440.0
25.32,421.0
25.34,402.0
25.36,404.0
25.38,404.0
25.4,438.0
25.42,403.0
25.44,404.0
25.46,417.0
25.48,451.0
25.5,402.0
25.52,390.0
25.54,403.0
25.56,428.0
25.58,389.0
25.6,385.0
25.62,393.0
25.64,389.0
25.66,441.0
25.68,417.0
25.7,436.0
25.72,376.0
25.74,374.0
25.76,351.0
25.78,396.0
25.8,398.0
25.82,412.0
25.84,397.0
25.86,382.0
25.88,381.0
25.9,366.0
25.92,372.0
25.94,368.0
25.96,385.0
25.98,377.0
26.0,375.0
26.02,368.0
26.04,366.0
26.06,366.0
26.08,373.0
26.1,361.0
26.12,354.0
26.14,375.0
26.16,358.0
26.18,360.0
26.2,364.0
26.22,339.0
26.24,398.0
26.26,389.0
26.28,394.0
26.3,375.0
26.32,377.0
26.34,378.0
26.36,379.0
26.38,364.0
26.4,392.0
26.42,338.0
26.44,366.0
26.46,359.0
26.48,357.0
26.5,333.0
26.52,336.0
26.54,401.0
26.56,352.0
26.58,336.0
26.6,356.0
26.62,349.0
26.64,369.0
26.66,354.0
26.68,366.0
26.7,374.0
26.72,390.0
26.74,381.0
26.76,370.0
26.78,411.0
26.8,403.0
26.82,383.0
26.84,420.0
26.86,386.0
26.88,386.0
26.9,392.0
26.92,350.0
26.94,377.0
26.96,351.0
26.98,351.0
27.0,358.0
27.02,337.0
27.04,340.0
27.06,343.0
27.08,371.0
27.1,335.0
27.12,309.0
27.14,346.0
27.16,346.0
27.18,361.0
27.2,351.0
27.22,359.0
27.24,294.0
27.26,346.0
27.28,325.0
27.3,312.0
27.32,344.0
27.34,347.0
27.36,357.0
27.38,349.0
27.4,320.0
27.42,337.0
27.44,353.0
27.46,333.0
27.48,330.0
27.5,351.0
27.52,321.0
27.54,361.0
27.56,365.0
27.58,358.0
27.6,346.0
27.62,365.0
27.64,354.0
27.66,372.0
27.68,407.0
27.7,366.0
27.72,348.0
27.74,357.0
27.76,335.0
27.78,350.0
27.8,347.0
27.82,316.0
27.84,360.0
27.86,363.0
27.88,362.0
27.9,375.0
27.92,355.0
27.94,403.0
27.96,399.0
27.98,388.0
28.0,367.0
28.02,392.0
28.04,383.0
28.06,407.0
28.08,456.0
28.1,435.0
28.12,448.0
28.14,465.0
28.16,466.0
28.18,517.0
28.2,528.0
28.22,521.0
28.24,583.0
28.26,647.0
28.28,725.0
28.3,752.0
28.32,752.0
28.34,886.0
28.36,927.0
28.38,1052.0
28.4,1087.0
28.42,1236.0
28.44,1333.0
28.46,1411.0
28.48,1509.0
28.5,1513.0
28.52,1475.0
28.54,1444.0
28.56,1398.0
28.58,1258.0
28.6,1170.0
28.62,1065.0
28.64,944.0
28.66,877.0
28.68,764.0
28.7,693.0
28.72,606.0
28.74,600.0
28.76,562.0
28.78,534.0
28.8,538.0
28.82,485.0
28.84,473.0
28.86,422.0
28.88,441.0
28.9,434.0
28.92,375.0
28.94,385.0
28.96,382.0
28.98,403.0
29.0,397.0
29.02,378.0
29.04,351.0
29.06,384.0
29.08,411.0
29.1,380.0
29.12,344.0
29.14,364.0
29.16,372.0
29.18,337.0
29.2,354.0
29.22,374.0
29.24,355.0
29.26,360.0
29.28,392.0
29.3,436.0
29.32,388.0
29.34,401.0
29.36,422.0
29.38,428.0
29.4,458.0
29.42,445.0
29.44,468.0
29.46,494.0
29.48,506.0
29.5,562.0
29.52,606.0
29.54,640.0
29.56,719.0
29.58,744.0
29.6,845.0
29.62,943.0
29.64,1040.0
29.66,1121.0
29.68,1278.0
29.7,1461.0
29.72,1508.0
29.74,1676.0
29.76,1880.0
29.78,2035.0
29.8,2063.0
29.82,1969.0
29.84,1994.0
29.86,1845.0
29.88,1680.0
29.9,1487.0
29.92,1347.0
29.94,1113.0
29.96,997.0
29.98,819.0
30.0,732.0
30.02,721.0
30.04,657.0
30.06,549.0
30.08,494.0
30.1,491.0
30.12,452.0
30.14,451.0
30.16,438.0
30.18,412.0
30.2,409.0
30.22,372.0
30.24,356.0
30.26,378.0
30.28,366.0
30.3,376.0
30.32,354.0
30.34,348.0
30.36,367.0
30.38,372.0
30.4,365.0
30.42,371.0
30.44,354.0
30.46,367.0
30.48,347.0
30.5,370.0
30.52,416.0
30.54,435.0
30.56,461.0
30.58,491.0
30.6,539.0
30.62,569.0
30.64,586.0
30.66,658.0
30.68,690.0
30.7,810.0
30.72,837.0
30.74,940.0
30.76,859.0
30.78,857.0
30.8,788.0
30.82,648.0
30.84,606.0
30.86,572.0
30.88,522.0
30.9,458.0
30.92,406.0
30.94,362.0
30.96,366.0
30.98,368.0
31.0,330.0
31.02,329.0
31.04,310.0
31.06,299.0
31.08,320.0
31.1,343.0
31.12,318.0
31.14,329.0
31.16,322.0
31.18,296.0
31.2,297.0
31.22,324.0
31.24,296.0
31.26,266.0
31.28,309.0
31.3,269.0
31.32,284.0
31.34,284.0
31.36,277.0
31.38,292.0
31.4,309.0
31.42,298.0
31.44,285.0
31.46,290.0
31.48,285.0
31.5,274.0
31.52,303.0
31.54,288.0
31.56,281.0
31.58,292.0
31.6,302.0
31.62,301.0
31.64,289.0
31.66,310.0
31.68,334.0
31.7,300.0
31.72,309.0
31.74,289.0
31.76,282.0
31.78,295.0
31.8,285.0
31.82,268.0
31.84,315.0
31.86,278.0
31.88,285.0
31.9,269.0
31.92,283.0
31.94,283.0
31.96,307.0
31.98,303.0
32.0,254.0
32.02,280.0
32.04,282.0
32.06,257.0
32.08,245.0
32.1,282.0
32.12,293.0
32.14,295.0
32.16,243.0
32.18,276.0
32.2,253.0
32.22,269.0
32.24,274.0
32.26,265.0
32.28,255.0
32.3,278.0
32.32,264.0
32.34,264.0
32.36,277.0
32.38,279.0
32.4,264.0
32.42,276.0
32.44,258.0
32.46,259.0
32.48,262.0
32.5,257.0
32.52,275.0
32.54,273.0
32.56,274.0
32.58,270.0
32.6,305.0
32.62,300.0
32.64,258.0
32.66,270.0
32.68,277.0
32.7,280.0
32.72,285.0
32.74,264.0
32.76,246.0
32.78,260.0
32.8,254.0
32.82,243.0
32.84,250.0
32.86,268.0
32.88,266.0
32.9,274.0
32.92,265.0
32.94,251.0
32.96,279.0
32.98,284.0
33.0,294.0
33.02,246.0
33.04,289.0
33.06,266.0
33.08,301.0
33.1,268.0
33.12,252.0
33.14,265.0
33.16,269.0
33.18,281.0
33.2,259.0
33.22,282.0
33.24,253.0
33.26,267.0
33.28,279.0
33.3,283.0
33.32,276.0
33.34,279.0
33.36,288.0
33.38,273.0
33.4,281.0
33.42,292.0
33.44,319.0
33.46,290.0
33.48,316.0
33.5,287.0
33.52,273.0
33.54,273.0
33.56,281.0
33.58,316.0
33.6,322.0
33.62,340.0
33.64,303.0
33.66,311.0
33.68,302.0
33.7,302.0
33.72,306.0
33.74,315.0
33.76,341.0
33.78,336.0
33.8,318.0
33.82,302.0
33.84,339.0
33.86,312.0
33.88,362.0
33.9,368.0
33.92,334.0
33.94,342.0
33.96,385.0
33.98,380.0
34.0,401.0
34.02,403.0
34.04,456.0
34.06,460.0
34.08,520.0
34.1,467.0
34.12,556.0
34.14,577.0
34.16,627.0
34.18,646.0
34.2,688.0
34.22,720.0
34.24,833.0
34.26,901.0
34.28,1022.0
34.3,1070.0
34.32,1241.0
34.34,1317.0
34.36,1438.0
34.38,1589.0
34.4,1827.0
34.42,1955.0
34.44,2070.0
34.46,2307.0
34.48,2377.0
34.5,2560.0
34.52,2546.0
34.54,2617.0
34.56,2584.0
34.58,2400.0
34.6,2364.0
34.62,2107.0
34.64,1942.0
34.66,1764.0
34.68,1698.0
34.7,1417.0
34.72,1285.0
34.74,1134.0
34.76,1058.0
34.78,968.0
34.8,902.0
34.82,794.0
34.84,732.0
34.86,650.0
34.88,587.0
34.9,558.0
34.92,569.0
34.94,511.0
34.96,474.0
34.98,437.0
35.0,449.0
35.02,393.0
35.04,402.0
35.06,365.0
35.08,362.0
35.1,387.0
35.12,366.0
35.14,336.0
35.16,345.0
35.18,337.0
35.2,346.0
35.22,329.0
35.24,301.0
35.26,313.0
35.28,297.0
35.3,279.0
35.32,321.0
35.34,294.0
35.36,287.0
35.38,286.0
35.4,278.0
35.42,306.0
35.44,294.0
35.46,261.0
35.48,271.0
35.5,270.0
35.52,267.0
35.54,265.0
35.56,287.0
35.58,287.0
35.6,278.0
35.62,263.0
35.64,275.0
35.66,256.0
35.68,264.0
35.7,284.0
35.72,248.0
35.74,261.0
35.76,288.0
35.78,271.0
35.8,278.0
35.82,248.0
35.84,278.0
35.86,278.0
35.88,258.0
35.9,260.0
35.92,250.0
35.94,248.0
35.96,259.0
35.98,243.0
36.0,257.0
36.02,265.0
36.04,247.0
36.06,247.0
36.08,238.0
36.1,247.0
36.12,263.0
36.14,234.0
36.16,206.0
36.18,242.0
36.2,245.0
36.22,231.0
36.24,256.0
36.26,244.0
36.28,276.0
36.3,229.0
36.32,220.0
36.34,235.0
36.36,232.0
36.38,254.0
36.4,249.0
36.42,224.0
36.44,215.0
36.46,233.0
36.48,255.0
36.5,236.0
36.52,238.0
36.54,221.0
36.56,247.0
36.58,236.0
36.6,235.0
36.62,202.0
36.64,250.0
36.66,251.0
36.68,262.0
36.7,208.0
36.72,253.0
36.74,256.0
36.76,227.0
36.78,233.0
36.8,234.0
36.82,232.0
36.84,220.0
36.86,227.0
36.88,228.0
36.9,202.0
36.92,239.0
36.94,211.0
36.96,221.0
36.98,207.0
37.0,239.0
37.02,232.0
37.04,222.0
37.06,235.0
37.08,226.0
37.1,253.0
37.12,236.0
37.14,236.0
37.16,202.0
37.18,249.0
37.2,229.0
37.22,237.0
37.24,246.0
37.26,245.0
37.28,231.0
37.3,245.0
37.32,285.0
37.34,251.0
37.36,276.0
37.38,286.0
37.4,288.0
37.42,327.0
37.44,308.0
37.46,308.0
37.48,302.0
37.5,353.0
37.52,372.0
37.54,350.0
37.56,393.0
37.58,401.0
37.6,489.0
37.62,446.0
37.64,538.0
37.66,597.0
37.68,562.0
37.7,598.0
37.72,587.0
37.74,629.0
37.76,630.0
37.78,628.0
37.8,640.0
37.82,601.0
37.84,541.0
37.86,500.0
37.88,516.0
37.9,504.0
37.92,485.0
37.94,427.0
37.96,395.0
37.98,370.0
38.0,355.0
38.02,317.0
38.04,307.0
38.06,304.0
38.08,287.0
38.1,310.0
38.12,284.0
38.14,274.0
38.16,268.0
38.18,257.0
38.2,245.0
38.22,263.0
38.24,257.0
38.26,264.0
38.28,278.0
38.3,230.0
38.32,258.0
38.34,250.0
38.36,269.0
38.38,266.0
38.4,256.0
38.42,254.0
38.44,227.0
38.46,243.0
38.48,242.0
38.5,197.0
38.52,235.0
38.54,226.0
38.56,227.0
38.58,238.0
38.6,253.0
38.62,263.0
38.64,224.0
38.66,253.0
38.68,240.0
38.7,253.0
38.72,254.0
38.74,277.0
38.76,237.0
38.78,241.0
38.8,194.0
38.82,216.0
38.84,230.0
38.86,232.0
38.88,211.0
38.9,221.0
38.92,234.0
38.94,263.0
38.96,231.0
38.98,225.0
39.0,250.0
39.02,239.0
39.04,232.0
39.06,224.0
39.08,204.0
39.1,214.0
39.12,226.0
39.14,242.0
39.16,242.0
39.18,218.0
39.2,222.0
39.22,212.0
39.24,223.0
39.26,248.0
39.28,187.0
39.3,221.0
39.32,237.0
39.34,206.0
39.36,252.0
39.38,233.0
39.4,228.0
39.42,254.0
39.44,208.0
39.46,223.0
39.48,227.0
39.5,232.0
39.52,204.0
39.54,226.0
39.56,218.0
39.58,230.0
39.6,209.0
39.62,236.0
39.64,225.0
39.66,194.0
39.68,222.0
39.7,207.0
39.72,208.0
39.74,214.0
39.76,229.0
39.78,224.0
39.8,242.0
39.82,229.0
39.84,224.0
39.86,209.0
39.88,233.0
39.9,209.0
39.92,258.0
39.94,214.0
39.96,211.0
39.98,209.0
40.0,205.0
40.02,205.0
40.04,238.0
40.06,222.0
40.08,213.0
40.1,187.0
40.12,220.0
40.14,210.0
40.16,234.0
40.18,240.0
40.2,190.0
40.22,205.0
40.24,219.0
40.26,206.0
40.28,216.0
40.3,213.0
40.32,223.0
40.34,211.0
40.36,212.0
40.38,227.0
40.4,229.0
40.42,187.0
40.44,212.0
40.46,258.0
40.48,250.0
40.5,233.0
40.52,217.0
40.54,226.0
40.56,229.0
40.58,210.0
40.6,227.0
40.62,242.0
40.64,214.0
40.66,224.0
40.68,225.0
40.7,232.0
40.72,209.0
40.74,226.0
40.76,235.0
40.78,212.0
40.8,261.0
40.82,241.0
40.84,256.0
40.86,237.0
40.88,221.0
40.9,218.0
40.92,218.0
40.94,227.0
40.96,217.0
40.98,240.0
41.0,244.0
41.02,235.0
41.04,238.0
41.06,229.0
41.08,219.0
41.1,241.0
41.12,231.0
41.14,217.0
41.16,232.0
41.18,241.0
41.2,235.0
41.22,231.0
41.24,248.0
41.26,237.0
41.28,240.0
41.3,236.0
41.32,246.0
41.34,252.0
41.36,218.0
41.38,219.0
41.4,230.0
41.42,243.0
41.44,233.0
41.46,204.0
41.48,223.0
41.5,224.0
41.52,230.0
41.54,225.0
41.56,238.0
41.58,256.0
41.6,256.0
41.62,248.0
41.64,247.0
41.66,250.0
41.68,242.0
41.7,273.0
41.72,273.0
41.74,259.0
41.76,270.0
41.78,254.0
41.8,254.0
41.82,250.0
41.84,263.0
41.86,242.0
41.88,256.0
41.9,269.0
41.92,235.0
41.94,258.0
41.96,274.0
41.98,291.0
42.0,275.0
42.02,291.0
42.04,339.0
42.06,305.0
42.08,322.0
42.1,317.0
42.12,342.0
42.14,367.0
42.16,365.0
42.18,395.0
42.2,408.0
42.22,413.0
42.24,496.0
42.26,528.0
42.28,508.0
42.3,557.0
42.32,671.0
42.34,653.0
42.36,715.0
42.38,817.0
42.4,925.0
42.42,1023.0
42.44,1029.0
42.46,1165.0
42.48,1223.0
42.5,1487.0
42.52,1567.0
42.54,1711.0
42.56,1758.0
42.58,1809.0
42.6,1888.0
42.62,1934.0
42.64,1864.0
42.66,1776.0
42.68,1725.0
42.7,1606.0
42.72,1498.0
42.74,1399.0
42.76,1268.0
42.78,1147.0
42.8,1017.0
42.82,958.0
42.84,840.0
42.86,824.0
42.88,727.0
42.9,595.0
42.92,611.0
42.94,575.0
42.96,503.0
42.98,471.0
43.0,455.0
43.02,435.0
43.04,412.0
43.06,396.0
43.08,392.0
43.1,320.0
43.12,336.0
43.14,336.0
43.16,308.0
43.18,339.0
43.2,323.0
43.22,325.0
43.24,279.0
43.26,287.0
43.28,302.0
43.3,264.0
43.32,266.0
43.34,303.0
43.36,265.0
43.38,277.0
43.4,260.0
43.42,253.0
43.44,270.0
43.46,256.0
43.48,257.0
43.5,268.0
43.52,265.0
43.54,242.0
43.56,255.0
43.58,237.0
43.6,250.0
43.62,233.0
43.64,251.0
43.66,247.0
43.68,257.0
43.7,216.0
43.72,264.0
43.74,246.0
43.76,252.0
43.78,278.0
43.8,278.0
43.82,257.0
43.84,256.0
43.86,271.0
43.88,286.0
43.9,291.0
43.92,315.0
43.94,328.0
43.96,316.0
43.98,340.0
44.0,365.0
44.02,351.0
44.04,293.0
44.06,315.0
44.08,285.0
44.1,301.0
44.12,286.0
44.14,296.0
44.16,262.0
44.18,284.0
44.2,254.0
44.22,244.0
44.24,249.0
44.26,196.0
44.28,236.0
44.3,232.0
44.32,238.0
44.34,242.0
44.36,234.0
44.38,252.0
44.4,254.0
44.42,249.0
44.44,242.0
44.46,241.0
44.48,219.0
44.5,225.0
44.52,226.0
44.54,239.0
44.56,262.0
44.58,232.0
44.6,247.0
44.62,244.0
44.64,244.0
44.66,233.0
44.68,251.0
44.7,236.0
44.72,262.0
44.74,242.0
44.76,255.0
44.78,251.0
44.8,267.0
44.82,278.0
44.84,266.0
44.86,300.0
44.88,286.0
44.9,276.0
44.92,261.0
44.94,281.0
44.96,301.0
44.98,318.0
45.0,332.0
45.02,333.0
45.04,403.0
45.06,373.0
45.08,417.0
45.1,438.0
45.12,425.0
45.14,452.0
45.16,467.0
45.18,517.0
45.2,536.0
45.22,577.0
45.24,577.0
45.26,618.0
45.28,680.0
45.3,749.0
45.32,669.0
45.34,644.0
45.36,720.0
45.38,698.0
45.4,628.0
45.42,624.0
45.44,554.0
45.46,555.0
45.48,521.0
45.5,495.0
45.52,474.0
45.54,436.0
45.56,407.0
45.58,394.0
45.6,399.0
45.62,355.0
45.64,349.0
45.66,354.0
45.68,314.0
45.7,313.0
45.72,286.0
45.74,299.0
45.76,281.0
45.78,279.0
45.8,289.0
45.82,240.0
45.84,252.0
45.86,264.0
45.88,243.0
45.9,237.0
45.92,273.0
45.94,218.0
45.96,243.0
45.98,217.0
46.0,262.0
46.02,263.0
46.04,242.0
46.06,210.0
46.08,203.0
46.1,234.0
46.12,216.0
46.14,204.0
46.16,207.0
46.18,213.0
46.2,206.0
46.22,226.0
46.24,221.0
46.26,219.0
46.28,225.0
46.3,226.0
46.32,212.0
46.34,219.0
46.36,227.0
46.38,236.0
46.4,222.0
46.42,226.0
46.44,244.0
46.46,227.0
46.48,215.0
46.5,243.0
46.52,201.0
46.54,216.0
46.56,220.0
46.58,227.0
46.6,221.0
46.62,221.0
46.64,221.0
46.66,209.0
46.68,215.0
46.7,216.0
46.72,230.0
46.74,200.0
46.76,247.0
46.78,209.0
46.8,232.0
46.82,216.0
46.84,225.0
46.86,195.0
46.88,204.0
46.9,229.0
46.92,210.0
46.94,211.0
46.96,218.0
46.98,211.0
47.0,184.0
47.02,199.0
47.04,217.0
47.06,198.0
47.08,199.0
47.1,207.0
47.12,209.0
47.14,232.0
47.16,229.0
47.18,217.0
47.2,195.0
47.22,211.0
47.24,211.0
47.26,233.0
47.28,208.0
47.3,225.0
47.32,188.0
47.34,209.0
47.36,209.0
47.38,194.0
47.4,217.0
47.42,199.0
47.44,203.0
47.46,208.0
47.48,206.0
47.5,206.0
47.52,174.0
47.54,188.0
47.56,207.0
47.58,230.0
47.6,220.0
47.62,251.0
47.64,194.0
47.66,217.0
47.68,214.0
47.7,230.0
47.72,214.0
47.74,199.0
47.76,210.0
47.78,207.0
47.8,212.0
47.82,222.0
47.84,199.0
47.86,230.0
47.88,246.0
47.9,204.0
47.92,230.0
47.94,231.0
47.96,214.0
47.98,198.0
48.0,242.0
48.02,225.0
48.04,198.0
48.06,239.0
48.08,220.0
48.1,235.0
48.12,211.0
48.14,215.0
48.16,200.0
48.18,222.0
48.2,234.0
48.22,204.0
48.24,200.0
48.26,221.0
48.28,209.0
48.3,196.0
48.32,239.0
48.34,233.0
48.36,220.0
48.38,219.0
48.4,227.0
48.42,225.0
48.44,217.0
48.46,231.0
48.48,230.0
48.5,202.0
48.52,230.0
48.54,213.0
48.56,224.0
48.58,204.0
48.6,215.0
48.62,230.0
48.64,222.0
48.66,230.0
48.68,215.0
48.7,188.0
48.72,240.0
48.74,228.0
48.76,274.0
48.78,246.0
48.8,255.0
48.82,271.0
48.84,244.0
48.86,251.0
48.88,260.0
48.9,282.0
48.92,252.0
48.94,289.0
48.96,287.0
48.98,275.0
49.0,300.0
49.02,285.0
49.04,297.0
49.06,334.0
49.08,359.0
49.1,366.0
49.12,355.0
49.14,380.0
49.16,413.0
49.18,401.0
49.2,457.0
49.22,512.0
49.24,525.0
49.26,554.0
49.28,563.0
49.3,644.0
49.32,673.0
49.34,714.0
49.36,776.0
49.38,838.0
49.4,950.0
49.42,1050.0
49.44,1121.0
49.46,1221.0
49.48,1304.0
49.5,1410.0
49.52,1580.0
49.54,1617.0
49.56,1651.0
49.58,1608.0
49.6,1669.0
49.62,1606.0
49.64,1611.0
49.66,1532.0
49.68,1411.0
49.7,1427.0
49.72,1304.0
49.74,1240.0
49.76,1166.0
49.78,1037.0
49.8,938.0
49.82,830.0
49.84,809.0
49.86,746.0
49.88,689.0
49.9,643.0
49.92,578.0
49.94,527.0
49.96,494.0
49.98,488.0
50.0,413.0
50.02,423.0
50.04,423.0
50.06,414.0
50.08,374.0
50.1,392.0
50.12,350.0
50.14,327.0
50.16,319.0
50.18,318.0
50.2,320.0
50.22,303.0
50.24,311.0
50.26,296.0
50.28,280.0
50.3,295.0
50.32,304.0
50.34,284.0
50.36,233.0
50.38,255.0
50.4,257.0
50.42,270.0
50.44,259.0
50.46,274.0
50.48,289.0
50.5,257.0
50.52,238.0
50.54,266.0
50.56,249.0
50.58,232.0
50.6,258.0
50.62,253.0
50.64,264.0
50.66,235.0
50.68,232.0
50.7,239.0
50.72,246.0
50.74,239.0
50.76,229.0
50.78,240.0
50.8,222.0
50.82,250.0
50.84,225.0
50.86,256.0
50.88,217.0
50.9,214.0
50.92,218.0
50.94,202.0
50.96,234.0
50.98,224.0
51.0,216.0
51.02,231.0
51.04,220.0
51.06,216.0
51.08,221.0
51.1,206.0
51.12,221.0
51.14,236.0
51.16,256.0
51.18,224.0
51.2,218.0
51.22,219.0
51.24,235.0
51.26,237.0
51.28,256.0
51.3,234.0
51.32,225.0
51.34,232.0
51.36,219.0
51.38,266.0
51.4,258.0
51.42,245.0
51.44,235.0
51.46,270.0
51.48,223.0
51.5,260.0
51.52,256.0
51.54,280.0
51.56,266.0
51.58,298.0
51.6,297.0
51.62,301.0
51.64,310.0
51.66,311.0
51.68,312.0
51.7,341.0
51.72,309.0
51.74,353.0
51.76,392.0
51.78,384.0
51.8,363.0
51.82,440.0
51.84,445.0
51.86,477.0
51.88,476.0
51.9,490.0
51.92,572.0
51.94,574.0
51.96,636.0
51.98,585.0
52.0,636.0
52.02,638.0
52.04,624.0
52.06,649.0
52.08,609.0
52.1,610.0
52.12,557.0
52.14,538.0
52.16,578.0
52.18,523.0
52.2,491.0
52.22,458.0
52.24,463.0
52.26,404.0
52.28,405.0
52.3,395.0
52.32,331.0
52.34,362.0
52.36,359.0
52.38,315.0
52.4,273.0
52.42,268.0
52.44,317.0
52.46,280.0
52.48,260.0
52.5,298.0
52.52,269.0
52.54,256.0
52.56,245.0
52.58,229.0
52.6,232.0
52.62,258.0
52.64,252.0
52.66,261.0
52.68,202.0
52.7,234.0
52.72,233.0
52.74,255.0
52.76,247.0
52.78,231.0
52.8,215.0
52.82,245.0
52.84,215.0
52.86,219.0
52.88,212.0
52.9,220.0
52.92,197.0
52.94,220.0
52.96,236.0
52.98,207.0
53.0,246.0
53.02,220.0
53.04,223.0
53.06,220.0
53.08,224.0
53.1,211.0
53.12,182.0
53.14,212.0
53.16,232.0
53.18,180.0
53.2,183.0
53.22,203.0
53.24,204.0
53.26,176.0
53.28,192.0
53.3,218.0
53.32,204.0
53.34,200.0
53.36,198.0
53.38,214.0
53.4,195.0
53.42,200.0
53.44,178.0
53.46,218.0
53.48,186.0
53.5,191.0
53.52,207.0
53.54,196.0
53.56,175.0
53.58,176.0
53.6,214.0
53.62,207.0
53.64,212.0
53.66,191.0
53.68,182.0
53.7,184.0
53.72,184.0
53.74,204.0
53.76,206.0
53.78,202.0
53.8,188.0
53.82,212.0
53.84,220.0
53.86,174.0
53.88,202.0
53.9,202.0
53.92,204.0
53.94,222.0
53.96,196.0
53.98,204.0
54.0,211.0
54.02,201.0
54.04,215.0
54.06,224.0
54.08,202.0
54.1,193.0
54.12,199.0
54.14,211.0
54.16,219.0
54.18,203.0
54.2,206.0
54.22,250.0
54.24,196.0
54.26,191.0
54.28,216.0
54.3,232.0
54.32,218.0
54.34,213.0
54.36,229.0
54.38,220.0
54.4,248.0
54.42,275.0
54.44,262.0
54.46,301.0
54.48,301.0
54.5,293.0
54.52,387.0
54.54,361.0
54.56,405.0
54.58,377.0
54.6,353.0
54.62,347.0
54.64,336.0
54.66,347.0
54.68,322.0
54.7,319.0
54.72,307.0
54.74,285.0
54.76,222.0
54.78,229.0
54.8,228.0
54.82,241.0
54.84,205.0
54.86,218.0
54.88,236.0
54.9,199.0
54.92,223.0
54.94,224.0
54.96,222.0
54.98,214.0
55.0,218.0
55.02,213.0
55.04,233.0
55.06,233.0
55.08,220.0
55.1,208.0
55.12,242.0
55.14,220.0
55.16,226.0
55.18,229.0
55.2,219.0
55.22,242.0
55.24,231.0
55.26,242.0
55.28,246.0
55.3,276.0
55.32,248.0
55.34,236.0
55.36,272.0
55.38,289.0
55.4,281.0
55.42,267.0
55.44,266.0
55.46,265.0
55.48,317.0
55.5,308.0
55.52,312.0
55.54,362.0
55.56,335.0
55.58,345.0
55.6,384.0
55.62,374.0
55.64,421.0
55.66,439.0
55.68,459.0
55.7,469.0
55.72,492.0
55.74,553.0
55.76,546.0
55.78,542.0
55.8,598.0
55.82,619.0
55.84,674.0
55.86,690.0
55.88,694.0
55.9,729.0
55.92,721.0
55.94,726.0
55.96,694.0
55.98,719.0
56.0,639.0
56.02,661.0
56.04,643.0
56.06,583.0
56.08,549.0
56.1,527.0
56.12,525.0
56.14,511.0
56.16,475.0
56.18,430.0
56.2,420.0
56.22,412.0
56.24,369.0
56.26,371.0
56.28,337.0
56.3,321.0
56.32,307.0
56.34,327.0
56.36,297.0
56.38,325.0
56.4,250.0
56.42,253.0
56.44,221.0
56.46,239.0
56.48,264.0
56.5,270.0
56.52,266.0
56.54,241.0
56.56,234.0
56.58,239.0
56.6,240.0
56.62,237.0
56.64,227.0
56.66,205.0
56.68,239.0
56.7,244.0
56.72,218.0
56.74,204.0
56.76,218.0
56.78,213.0
56.8,216.0
56.82,190.0
56.84,198.0
56.86,210.0
56.88,212.0
56.9,206.0
56.92,225.0
56.94,202.0
56.96,223.0
56.98,216.0
57.0,177.0
57.02,204.0
57.04,256.0
57.06,218.0
57.08,218.0
57.1,191.0
57.12,205.0
57.14,225.0
57.16,195.0
57.18,188.0
57.2,213.0
57.22,203.0
57.24,203.0
57.26,206.0
57.28,205.0
57.3,193.0
57.32,189.0
57.34,202.0
57.36,208.0
57.38,217.0
57.4,202.0
57.42,205.0
57.44,213.0
57.46,209.0
57.48,190.0
57.5,208.0
57.52,225.0
57.54,207.0
57.56,189.0
57.58,213.0
57.6,188.0
57.62,227.0
57.64,212.0
57.66,208.0
57.68,191.0
57.7,214.0
57.72,207.0
57.74,238.0
57.76,228.0
57.78,217.0
57.8,191.0
57.82,218.0
57.84,219.0
57.86,234.0
57.88,235.0
57.9,248.0
57.92,237.0
57.94,260.0
57.96,254.0
57.98,247.0
58.0,263.0
58.02,251.0
58.04,254.0
58.06,294.0
58.08,308.0
58.1,322.0
58.12,319.0
58.14,291.0
58.16,348.0
58.18,319.0
58.2,294.0
58.22,307.0
58.24,307.0
58.26,305.0
58.28,285.0
58.3,305.0
58.32,327.0
58.34,304.0
58.36,307.0
58.38,290.0
58.4,282.0
58.42,272.0
58.44,268.0
58.46,284.0
58.48,250.0
58.5,256.0
58.52,266.0
58.54,274.0
58.56,273.0
58.58,272.0
58.6,272.0
58.62,305.0
58.64,293.0
58.66,303.0
58.68,329.0
58.7,336.0
58.72,339.0
58.74,340.0
58.76,376.0
58.78,366.0
58.8,381.0
58.82,392.0
58.84,410.0
58.86,382.0
58.88,380.0
58.9,411.0
58.92,414.0
58.94,404.0
58.96,410.0
58.98,413.0
59.0,386.0
59.02,368.0
59.04,348.0
59.06,388.0
59.08,365.0
59.1,344.0
59.12,327.0
59.14,309.0
59.16,312.0
59.18,289.0
59.2,273.0
59.22,261.0
59.24,266.0
59.26,256.0
59.28,243.0
59.3,265.0
59.32,243.0
59.34,228.0
59.36,246.0
59.38,263.0
59.4,220.0
59.42,241.0
59.44,227.0
59.46,227.0
59.48,224.0
59.5,207.0
59.52,243.0
59.54,199.0
59.56,202.0
59.58,234.0
59.6,230.0
59.62,224.0
59.64,204.0
59.66,215.0
59.68,210.0
59.7,208.0
59.72,203.0
59.74,207.0
59.76,194.0
59.78,200.0
59.8,208.0
59.82,201.0
59.84,211.0
59.86,201.0
59.88,191.0
59.9,167.0
59.92,221.0
59.94,184.0
59.96,193.0
59.98,184.0
60.0,199.0
60.02,196.0
60.04,201.0
60.06,189.0
60.08,187.0
60.1,193.0
60.12,206.0
60.14,188.0
60.16,191.0
60.18,185.0
60.2,222.0
60.22,211.0
60.24,192.0
60.26,216.0
60.28,199.0
60.3,192.0
60.32,209.0
60.34,187.0
60.36,197.0
60.38,204.0
60.4,192.0
60.42,211.0
60.44,192.0
60.46,209.0
60.48,179.0
60.5,198.0
60.52,194.0
60.54,198.0
60.56,189.0
60.58,209.0
60.6,207.0
60.62,196.0
60.64,219.0
60.66,222.0
60.68,223.0
60.7,206.0
60.72,196.0
60.74,214.0
60.76,185.0
60.78,207.0
60.8,198.0
60.82,214.0
60.84,221.0
60.86,207.0
60.88,197.0
60.9,201.0
60.92,203.0
60.94,208.0
60.96,214.0
60.98,184.0
61.0,186.0
61.02,213.0
61.04,176.0
61.06,214.0
61.08,230.0
61.1,199.0
61.12,215.0
61.14,202.0
61.16,232.0
61.18,244.0
61.2,205.0
61.22,223.0
61.24,242.0
61.26,231.0
61.28,238.0
61.3,243.0
61.32,221.0
61.34,247.0
61.36,274.0
61.38,269.0
61.4,286.0
61.42,282.0
61.44,312.0
61.46,302.0
61.48,333.0
61.5,331.0
61.52,356.0
61.54,350.0
61.56,412.0
61.58,417.0
61.6,440.0
61.62,469.0
61.64,466.0
61.66,460.0
61.68,509.0
61.7,522.0
61.72,582.0
61.74,576.0
61.76,615.0
61.78,649.0
61.8,638.0
61.82,604.0
61.84,601.0
61.86,585.0
61.88,605.0
61.9,542.0
61.92,561.0
61.94,537.0
61.96,498.0
61.98,497.0
62.0,462.0
62.02,414.0
62.04,360.0
62.06,356.0
62.08,367.0
62.1,328.0
62.12,340.0
62.14,317.0
62.16,310.0
62.18,294.0
62.2,293.0
62.22,261.0
62.24,288.0
62.26,290.0
62.28,242.0
62.3,242.0
62.32,230.0
62.34,232.0
62.36,214.0
62.38,211.0
62.4,237.0
62.42,238.0
62.44,209.0
62.46,236.0
62.48,191.0
62.5,206.0
62.52,207.0
62.54,229.0
62.56,223.0
62.58,219.0
62.6,207.0
62.62,228.0
62.64,212.0
62.66,190.0
62.68,197.0
62.7,236.0
62.72,215.0
62.74,222.0
62.76,197.0
62.78,197.0
62.8,216.0
62.82,213.0
62.84,207.0
62.86,196.0
62.88,203.0
62.9,222.0
62.92,190.0
62.94,230.0
62.96,189.0
62.98,213.0
63.0,232.0
63.02,211.0
63.04,228.0
63.06,216.0
63.08,219.0
63.1,208.0
63.12,200.0
63.14,184.0
63.16,187.0
63.18,207.0
63.2,219.0
63.22,208.0
63.24,217.0
63.26,212.0
63.28,218.0
63.3,210.0
63.32,230.0
63.34,202.0
63.36,199.0
63.38,211.0
63.4,230.0
63.42,209.0
63.44,231.0
63.46,258.0
63.48,231.0
63.5,196.0
63.52,243.0
63.54,268.0
63.56,260.0
63.58,284.0
63.6,271.0
63.62,290.0
63.64,280.0
63.66,304.0
63.68,299.0
63.7,284.0
63.72,311.0
63.74,300.0
63.76,370.0
63.78,390.0
63.8,379.0
63.82,387.0
63.84,419.0
63.86,415.0
63.88,394.0
63.9,434.0
63.92,413.0
63.94,399.0
63.96,386.0
63.98,390.0
64.0,367.0
64.02,366.0
64.04,359.0
64.06,389.0
64.08,351.0
64.1,318.0
64.12,309.0
64.14,305.0
64.16,336.0
64.18,293.0
64.2,276.0
64.22,290.0
64.24,267.0
64.26,257.0
64.28,273.0
64.3,226.0
64.32,230.0
64.34,255.0
64.36,227.0
64.38,209.0
64.4,253.0
64.42,245.0
64.44,216.0
64.46,229.0
64.48,225.0
64.5,209.0
64.52,229.0
64.54,221.0
64.56,225.0
64.58,227.0
64.6,219.0
64.62,222.0
64.64,216.0
64.66,203.0
64.68,198.0
64.7,189.0
64.72,216.0
64.74,218.0
64.76,215.0
64.78,202.0
64.8,194.0
64.82,213.0
64.84,202.0
64.86,208.0
64.88,192.0
64.9,186.0
64.92,193.0
64.94,186.0
64.96,200.0
64.98,201.0
65.0,202.0
65.02,190.0
65.04,188.0
65.06,188.0
65.08,193.0
65.1,213.0
65.12,204.0
65.14,190.0
65.16,205.0
65.18,187.0
65.2,204.0
65.22,183.0
65.24,207.0
65.26,196.0
65.28,191.0
65.3,237.0
65.32,200.0
65.34,189.0
65.36,210.0
65.38,225.0
65.4,197.0
65.42,199.0
65.44,193.0
65.46,170.0
65.48,200.0
65.5,212.0
65.52,188.0
65.54,206.0
65.56,206.0
65.58,207.0
65.6,206.0
65.62,192.0
65.64,188.0
65.66,207.0
65.68,199.0
65.7,205.0
65.72,198.0
65.74,202.0
65.76,201.0
65.78,168.0
65.8,213.0
65.82,192.0
65.84,205.0
65.86,174.0
65.88,221.0
65.9,195.0
65.92,202.0
65.94,188.0
65.96,204.0
65.98,218.0
66.0,213.0
66.02,194.0
66.04,182.0
66.06,193.0
66.08,202.0
66.1,215.0
66.12,210.0
66.14,193.0
66.16,200.0
66.18,198.0
66.2,213.0
66.22,221.0
66.24,226.0
66.26,221.0
66.28,213.0
66.3,204.0
66.32,202.0
66.34,197.0
66.36,214.0
66.38,225.0
66.4,202.0
66.42,224.0
66.44,239.0
66.46,217.0
66.48,210.0
66.5,217.0
66.52,204.0
66.54,249.0
66.56,216.0
66.58,242.0
66.6,220.0
66.62,234.0
66.64,236.0
66.66,210.0
66.68,241.0
66.7,265.0
66.72,241.0
66.74,228.0
66.76,261.0
66.78,244.0
66.8,255.0
66.82,259.0
66.84,301.0
66.86,279.0
66.88,304.0
66.9,307.0
66.92,291.0
66.94,325.0
66.96,347.0
66.98,312.0
67.0,328.0
67.02,396.0
67.04,402.0
67.06,412.0
67.08,475.0
67.1,444.0
67.12,508.0
67.14,490.0
67.16,488.0
67.18,563.0
67.2,528.0
67.22,612.0
67.24,610.0
67.26,630.0
67.28,708.0
67.3,710.0
67.32,683.0
67.34,685.0
67.36,733.0
67.38,712.0
67.4,663.0
67.42,630.0
67.44,661.0
67.46,646.0
67.48,627.0
67.5,596.0
67.52,577.0
67.54,519.0
67.56,526.0
67.58,511.0
67.6,508.0
67.62,478.0
67.64,460.0
67.66,405.0
67.68,415.0
67.7,410.0
67.72,385.0
67.74,368.0
67.76,359.0
67.78,343.0
67.8,360.0
67.82,316.0
67.84,318.0
67.86,306.0
67.88,265.0
67.9,285.0
67.92,274.0
67.94,280.0
67.96,285.0
67.98,243.0
68.0,245.0
68.02,257.0
68.04,242.0
68.06,263.0
68.08,265.0
68.1,271.0
68.12,258.0
68.14,257.0
68.16,208.0
68.18,260.0
68.2,239.0
68.22,286.0
68.24,279.0
68.26,264.0
68.28,276.0
68.3,231.0
68.32,221.0
68.34,269.0
68.36,248.0
68.38,228.0
68.4,273.0
68.42,272.0
68.44,265.0
68.46,252.0
68.48,203.0
68.5,247.0
68.52,214.0
68.54,224.0
68.56,220.0
68.58,212.0
68.6,207.0
68.62,228.0
68.64,207.0
68.66,209.0
68.68,228.0
68.7,214.0
68.72,229.0
68.74,199.0
68.76,198.0
68.78,192.0
68.8,209.0
68.82,231.0
68.84,242.0
68.86,208.0
68.88,218.0
68.9,222.0
68.92,228.0
68.94,225.0
68.96,221.0
68.98,237.0
69.0,226.0
69.02,235.0
69.04,257.0
69.06,205.0
69.08,237.0
69.1,232.0
69.12,273.0
69.14,246.0
69.16,255.0
69.18,294.0
69.2,292.0
69.22,252.0
69.24,319.0
69.26,284.0
69.28,303.0
69.3,276.0
69.32,317.0
69.34,321.0
69.36,309.0
69.38,307.0
69.4,308.0
69.42,307.0
69.44,324.0
69.46,328.0
69.48,281.0
69.5,264.0
69.52,336.0
69.54,300.0
69.56,289.0
69.58,289.0
69.6,270.0
69.62,284.0
69.64,266.0
69.66,275.0
69.68,286.0
69.7,231.0
69.72,228.0
69.74,252.0
69.76,229.0
69.78,227.0
69.8,224.0
69.82,212.0
69.84,213.0
69.86,200.0
69.88,225.0
69.9,221.0
69.92,212.0
69.94,205.0
69.96,198.0
69.98,212.0
70.0,230.0
70.02,207.0
70.04,165.0
70.06,199.0
70.08,203.0
70.1,186.0
70.12,196.0
70.14,201.0
70.16,196.0
70.18,185.0
70.2,173.0
70.22,200.0
70.24,195.0
70.26,187.0
70.28,182.0
70.3,184.0
70.32,185.0
70.34,190.0
70.36,186.0
70.38,191.0
70.4,183.0
70.42,206.0
70.44,208.0
70.46,175.0
70.48,191.0
70.5,189.0
70.52,205.0
70.54,186.0
70.56,202.0
70.58,163.0
70.6,194.0
70.62,207.0
70.64,182.0
70.66,185.0
70.68,205.0
70.7,165.0
70.72,184.0
70.74,194.0
70.76,186.0
70.78,175.0
70.8,186.0
70.82,186.0
70.84,175.0
70.86,182.0
70.88,189.0
70.9,181.0
70.92,153.0
70.94,184.0
70.96,187.0
70.98,186.0
71.0,160.0
71.02,186.0
71.04,162.0
71.06,190.0
71.08,183.0
71.1,180.0
71.12,222.0
71.14,187.0
71.16,163.0
71.18,157.0
71.2,157.0
71.22,171.0
71.24,164.0
71.26,182.0
71.28,194.0
71.3,180.0
71.32,191.0
71.34,188.0
71.36,172.0
71.38,188.0
71.4,183.0
71.42,198.0
71.44,178.0
71.46,189.0
71.48,191.0
71.5,182.0
71.52,183.0
71.54,184.0
71.56,162.0
71.58,170.0
71.6,172.0
71.62,185.0
71.64,171.0
71.66,188.0
71.68,174.0
71.7,190.0
71.72,191.0
71.74,207.0
71.76,203.0
71.78,229.0
71.8,200.0
71.82,179.0
71.84,167.0
71.86,207.0
71.88,195.0
71.9,184.0
71.92,206.0
71.94,169.0
71.96,170.0
71.98,184.0
72.0,204.0
72.02,181.0
72.04,193.0
72.06,205.0
72.08,200.0
72.1,207.0
72.12,199.0
72.14,193.0
72.16,191.0
72.18,199.0
72.2,217.0
72.22,187.0
72.24,196.0
72.26,199.0
72.28,219.0
72.3,240.0
72.32,227.0
72.34,246.0
72.36,243.0
72.38,269.0
72.4,256.0
72.42,284.0
72.44,292.0
72.46,304.0
72.48,304.0
72.5,284.0
72.52,319.0
72.54,305.0
72.56,291.0
72.58,278.0
72.6,304.0
72.62,303.0
72.64,312.0
72.66,287.0
72.68,289.0
72.7,299.0
72.72,275.0
72.74,271.0
72.76,302.0
72.78,298.0
72.8,277.0
72.82,305.0
72.84,278.0
72.86,262.0
72.88,270.0
72.9,278.0
72.92,256.0
72.94,258.0
72.96,262.0
72.98,227.0
73.0,240.0
73.02,246.0
73.04,248.0
73.06,233.0
73.08,251.0
73.1,232.0
73.12,227.0
73.14,238.0
73.16,216.0
73.18,207.0
73.2,228.0
73.22,194.0
73.24,190.0
73.26,193.0
73.28,191.0
73.3,204.0
73.32,196.0
73.34,201.0
73.36,160.0
73.38,196.0
73.4,205.0
73.42,193.0
73.44,194.0
73.46,182.0
73.48,191.0
73.5,183.0
73.52,175.0
73.54,201.0
73.56,194.0
73.58,168.0
73.6,188.0
73.62,184.0
73.64,166.0
73.66,174.0
73.68,189.0
73.7,192.0
73.72,183.0
73.74,188.0
73.76,179.0
73.78,192.0
73.8,182.0
73.82,188.0
73.84,182.0
73.86,172.0
73.88,169.0
73.9,162.0
73.92,164.0
73.94,184.0
73.96,179.0
73.98,178.0
74.0,179.0
74.02,193.0
74.04,186.0
74.06,178.0
74.08,185.0
74.1,178.0
74.12,182.0
74.14,197.0
74.16,207.0
74.18,195.0
74.2,195.0
74.22,193.0
74.24,171.0
74.26,201.0
74.28,178.0
74.3,199.0
74.32,170.0
74.34,203.0
74.36,196.0
74.38,184.0
74.4,177.0
74.42,189.0
74.44,206.0
74.46,188.0
74.48,187.0
74.5,199.0
74.52,201.0
74.54,181.0
74.56,167.0
74.58,185.0
74.6,216.0
74.62,182.0
74.64,199.0
74.66,212.0
74.68,196.0
74.7,215.0
74.72,200.0
74.74,195.0
74.76,201.0
74.78,167.0
74.8,178.0
74.82,205.0
74.84,185.0
74.86,195.0
74.88,210.0
74.9,181.0
74.92,201.0
74.94,189.0
74.96,198.0
74.98,176.0
75.0,173.0
75.02,180.0
75.04,203.0
75.06,168.0
75.08,182.0
75.1,162.0
75.12,184.0
75.14,202.0
75.16,188.0
75.18,179.0
75.2,186.0
75.22,175.0
75.24,190.0
75.26,186.0
75.28,198.0
75.3,185.0
75.32,187.0
75.34,197.0
75.36,171.0
75.38,187.0
75.4,185.0
75.42,182.0
75.44,180.0
75.46,199.0
75.48,194.0
75.5,150.0
75.52,186.0
75.54,185.0
75.56,180.0
75.58,165.0
75.6,173.0
75.62,179.0
75.64,174.0
75.66,178.0
75.68,168.0
75.7,166.0
75.72,171.0
75.74,167.0
75.76,192.0
75.78,181.0
75.8,188.0
75.82,176.0
75.84,164.0
75.86,186.0
75.88,163.0
75.9,187.0
75.92,181.0
75.94,185.0
75.96,178.0
75.98,171.0
76.0,199.0
76.02,183.0
76.04,167.0
76.06,173.0
76.08,177.0
76.1,185.0
76.12,179.0
76.14,189.0
76.16,168.0
76.18,151.0
76.2,167.0
76.22,177.0
76.24,201.0
76.26,186.0
76.28,178.0
76.3,206.0
76.32,190.0
76.34,195.0
76.36,178.0
76.38,195.0
76.4,187.0
76.42,182.0
76.44,166.0
76.46,203.0
76.48,219.0
76.5,169.0
76.52,169.0
76.54,197.0
76.56,199.0
76.58,210.0
76.6,182.0
76.62,181.0
76.64,200.0
76.66,189.0
76.68,192.0
76.7,206.0
76.72,212.0
76.74,174.0
76.76,198.0
76.78,199.0
76.8,204.0
76.82,175.0
76.84,209.0
76.86,212.0
76.88,196.0
76.9,221.0
76.92,202.0
76.94,188.0
76.96,211.0
76.98,176.0
77.0,192.0
77.02,184.0
77.04,175.0
77.06,179.0
77.08,228.0
77.1,210.0
77.12,207.0
77.14,208.0
77.16,213.0
77.18,216.0
77.2,207.0
77.22,203.0
77.24,230.0
77.26,231.0
77.28,237.0
77.3,214.0
77.32,227.0
77.34,210.0
77.36,237.0
77.38,242.0
77.4,227.0
77.42,221.0
77.44,236.0
77.46,237.0
77.48,262.0
77.5,248.0
77.52,246.0
77.54,282.0
77.56,271.0
77.58,252.0
77.6,271.0
77.62,288.0
77.64,287.0
77.66,305.0
77.68,292.0
77.7,298.0
77.72,330.0
77.74,313.0
77.76,324.0
77.78,368.0
77.8,367.0
77.82,346.0
77.84,358.0
77.86,342.0
77.88,352.0
77.9,377.0
77.92,375.0
77.94,377.0
77.96,344.0
77.98,339.0
78.0,301.0
78.02,333.0
78.04,337.0
78.06,328.0
78.08,326.0
78.1,328.0
78.12,330.0
78.14,280.0
78.16,284.0
78.18,295.0
78.2,284.0
78.22,297.0
78.24,262.0
78.26,266.0
78.28,276.0
78.3,274.0
78.32,250.0
78.34,277.0
78.36,254.0
78.38,228.0
78.4,249.0
78.42,240.0
78.44,217.0
78.46,213.0
78.48,196.0
78.5,207.0
78.52,205.0
78.54,200.0
78.56,217.0
78.58,216.0
78.6,226.0
78.62,214.0
78.64,210.0
78.66,200.0
78.68,192.0
78.7,202.0
78.72,197.0
78.74,224.0
78.76,250.0
78.78,216.0
78.8,199.0
78.82,200.0
78.84,193.0
78.86,207.0
78.88,212.0
78.9,217.0
78.92,204.0
78.94,188.0
78.96,185.0
78.98,217.0
79.0,199.0
79.02,202.0
79.04,205.0
79.06,203.0
79.08,202.0
79.1,229.0
79.12,233.0
79.14,197.0
79.16,216.0
79.18,185.0
79.2,220.0
79.22,236.0
79.24,212.0
79.26,192.0
79.28,194.0
79.3,202.0
79.32,224.0
79.34,216.0
79.36,203.0
79.38,204.0
79.4,201.0
79.42,216.0
79.44,240.0
79.46,228.0
79.48,226.0
79.5,210.0
79.52,239.0
79.54,238.0
79.56,259.0
79.58,230.0
79.6,238.0
79.62,229.0
79.64,212.0
79.66,247.0
79.68,261.0
79.7,284.0
79.72,268.0
79.74,259.0
79.76,274.0
79.78,296.0
79.8,258.0
79.82,257.0
79.84,264.0
79.86,287.0
79.88,276.0
79.9,241.0
79.92,300.0
79.94,265.0
79.96,293.0
79.98,242.0
80.0,256.0
80.02,244.0
80.04,265.0
80.06,265.0
80.08,242.0
80.1,246.0
80.12,267.0
80.14,218.0
80.16,245.0
80.18,271.0
80.2,255.0
80.22,238.0
80.24,272.0
80.26,248.0
80.28,222.0
80.3,282.0
80.32,249.0
80.34,251.0
80.36,259.0
80.38,253.0
80.4,233.0
80.42,242.0
80.44,268.0
80.46,265.0
80.48,255.0
80.5,251.0
80.52,235.0
80.54,233.0
80.56,247.0
80.58,248.0
80.6,245.0
80.62,237.0
80.64,223.0
80.66,235.0
80.68,217.0
80.7,263.0
80.72,264.0
80.74,251.0
80.76,218.0
80.78,205.0
80.8,239.0
80.82,203.0
80.84,214.0
80.86,216.0
80.88,225.0
80.9,200.0
80.92,242.0
80.94,206.0
80.96,215.0
80.98,246.0
81.0,209.0
81.02,226.0
81.04,181.0
81.06,200.0
81.08,211.0
81.1,219.0
81.12,208.0
81.14,188.0
81.16,204.0
81.18,187.0
81.2,212.0
81.22,204.0
81.24,235.0
81.26,210.0
81.28,199.0
81.3,180.0
81.32,228.0
81.34,208.0
81.36,201.0
81.38,194.0
81.4,197.0
81.42,226.0
81.44,184.0
81.46,185.0
81.48,202.0
81.5,201.0
81.52,185.0
81.54,203.0
81.56,216.0
81.58,198.0
81.6,200.0
81.62,167.0
81.64,196.0
81.66,202.0
81.68,198.0
81.7,198.0
81.72,188.0
81.74,203.0
81.76,184.0
81.78,180.0
81.8,179.0
81.82,178.0
81.84,174.0
81.86,243.0
81.88,212.0
81.9,210.0
81.92,210.0
81.94,195.0
81.96,210.0
81.98,208.0
82.0,232.0
82.02,212.0
82.04,177.0
82.06,206.0
82.08,199.0
82.1,220.0
82.12,207.0
82.14,231.0
82.16,200.0
82.18,236.0
82.2,236.0
82.22,200.0
82.24,210.0
82.26,235.0
82.28,248.0
82.3,239.0
82.32,241.0
82.34,201.0
82.36,232.0
82.38,264.0
82.4,242.0
82.42,234.0
82.44,239.0
82.46,241.0
82.48,268.0
82.5,253.0
82.52,222.0
82.54,249.0
82.56,265.0
82.58,283.0
82.6,282.0
82.62,314.0
82.64,288.0
82.66,291.0
82.68,328.0
82.7,312.0
82.72,316.0
82.74,339.0
82.76,382.0
82.78,308.0
82.8,352.0
82.82,360.0
82.84,376.0
82.86,376.0
82.88,397.0
82.9,387.0
82.92,443.0
82.94,393.0
82.96,413.0
82.98,397.0
83.0,417.0
83.02,401.0
83.04,402.0
83.06,384.0
83.08,395.0
83.1,409.0
83.12,400.0
83.14,371.0
83.16,404.0
83.18,386.0
83.2,360.0
83.22,381.0
83.24,333.0
83.26,337.0
83.28,374.0
83.3,348.0
83.32,348.0
83.34,283.0
83.36,333.0
83.38,342.0
83.4,323.0
83.42,303.0
83.44,270.0
83.46,247.0
83.48,286.0
83.5,284.0
83.52,268.0
83.54,263.0
83.56,275.0
83.58,282.0
83.6,234.0
83.62,233.0
83.64,240.0
83.66,255.0
83.68,274.0
83.7,229.0
83.72,231.0
83.74,256.0
83.76,210.0
83.78,213.0
83.8,252.0
83.82,200.0
83.84,221.0
83.86,249.0
83.88,204.0
83.9,239.0
83.92,219.0
83.94,241.0
83.96,237.0
83.98,202.0
84.0,219.0
84.02,207.0
84.04,222.0
84.06,194.0
84.08,200.0
84.1,187.0
84.12,214.0
84.14,219.0
84.16,216.0
84.18,217.0
84.2,228.0
84.22,206.0
84.24,196.0
84.26,205.0
84.28,223.0
84.3,213.0
84.32,258.0
84.34,213.0
84.36,224.0
84.38,204.0
84.4,215.0
84.42,250.0
84.44,242.0
84.46,232.0
84.48,239.0
84.5,232.0
84.52,269.0
84.54,267.0
84.56,261.0
84.58,233.0
84.6,241.0
84.62,241.0
84.64,256.0
84.66,247.0
84.68,230.0
84.7,244.0
84.72,268.0
84.74,260.0
84.76,261.0
84.78,260.0
84.8,257.0
84.82,275.0
84.84,205.0
84.86,238.0
84.88,259.0
84.9,279.0
84.92,249.0
84.94,259.0
84.96,261.0
84.98,245.0
85.0,286.0
85.02,237.0
85.04,255.0
85.06,249.0
85.08,258.0
85.1,202.0
85.12,254.0
85.14,250.0
85.16,250.0
85.18,225.0
85.2,211.0
85.22,227.0
85.24,207.0
85.26,217.0
85.28,210.0
85.3,212.0
85.32,191.0
85.34,223.0
85.36,219.0
85.38,211.0
85.4,201.0
85.42,218.0
85.44,222.0
85.46,234.0
85.48,198.0
85.5,205.0
85.52,228.0
85.54,194.0
85.56,217.0
85.58,213.0
85.6,201.0
85.62,199.0
85.64,209.0
85.66,202.0
85.68,205.0
85.7,231.0
85.72,207.0
85.74,191.0
85.76,193.0
85.78,202.0
85.8,214.0
85.82,215.0
85.84,203.0
85.86,221.0
85.88,209.0
85.9,194.0
85.92,192.0
85.94,199.0
85.96,222.0
85.98,207.0
86.0,171.0
86.02,209.0
86.04,173.0
86.06,182.0
86.08,185.0
86.1,204.0
86.12,187.0
86.14,176.0
86.16,204.0
86.18,203.0
86.2,184.0
86.22,160.0
86.24,194.0
86.26,178.0
86.28,184.0
86.3,205.0
86.32,189.0
86.34,200.0
86.36,194.0
86.38,178.0
86.4,184.0
86.42,214.0
86.44,169.0
86.46,202.0
86.48,195.0
86.5,214.0
86.52,187.0
86.54,196.0
86.56,189.0
86.58,197.0
86.6,207.0
86.62,211.0
86.64,201.0
86.66,200.0
86.68,192.0
86.7,200.0
86.72,202.0
86.74,174.0
86.76,197.0
86.78,190.0
86.8,197.0
86.82,208.0
86.84,206.0
86.86,207.0
86.88,192.0
86.9,203.0
86.92,215.0
86.94,185.0
86.96,167.0
86.98,188.0
87.0,198.0
87.02,201.0
87.04,181.0
87.06,200.0
87.08,185.0
87.1,198.0
87.12,204.0
87.14,205.0
87.16,212.0
87.18,190.0
87.2,228.0
87.22,234.0
87.24,176.0
87.26,190.0
87.28,230.0
87.3,203.0
87.32,209.0
87.34,194.0
87.36,201.0
87.38,220.0
87.4,207.0
87.42,210.0
87.44,193.0
87.46,205.0
87.48,229.0
87.5,205.0
87.52,206.0
87.54,229.0
87.56,214.0
87.58,216.0
87.6,248.0
87.62,256.0
87.64,220.0
87.66,233.0
87.68,228.0
87.7,263.0
87.72,242.0
87.74,255.0
87.76,232.0
87.78,241.0
87.8,242.0
87.82,246.0
87.84,258.0
87.86,271.0
87.88,261.0
87.9,277.0
87.92,304.0
87.94,255.0
87.96,259.0
87.98,260.0
88.0,292.0
88.02,300.0
88.04,278.0
88.06,256.0
88.08,268.0
88.1,282.0
88.12,273.0
88.14,277.0
88.16,276.0
88.18,283.0
88.2,286.0
88.22,285.0
88.24,265.0
88.26,247.0
88.28,262.0
88.3,266.0
88.32,260.0
88.34,260.0
88.36,274.0
88.38,253.0
88.4,241.0
88.42,220.0
88.44,236.0
88.46,235.0
88.48,258.0
88.5,244.0
88.52,224.0
88.54,234.0
88.56,205.0
88.58,258.0
88.6,247.0
88.62,234.0
88.64,241.0
88.66,259.0
88.68,228.0
88.7,259.0
88.72,259.0
88.74,284.0
88.76,288.0
88.78,263.0
88.8,259.0
88.82,245.0
88.84,253.0
88.86,275.0
88.88,256.0
88.9,234.0
88.92,251.0
88.94,248.0
88.96,242.0
88.98,265.0
89.0,237.0
89.02,228.0
89.04,252.0
89.06,233.0
89.08,214.0
89.1,214.0
89.12,219.0
89.14,230.0
89.16,220.0
89.18,225.0
89.2,215.0
89.22,210.0
89.24,209.0
89.26,224.0
89.28,218.0
89.3,211.0
89.32,228.0
89.34,203.0
89.36,212.0
89.38,232.0
89.4,223.0
89.42,205.0
89.44,195.0
89.46,198.0
89.48,228.0
89.5,220.0
89.52,210.0
89.54,244.0
89.56,218.0
89.58,221.0
89.6,219.0
89.62,220.0
89.64,259.0
89.66,244.0
89.68,222.0
89.7,221.0
89.72,257.0
89.74,243.0
89.76,234.0
89.78,226.0
89.8,269.0
89.82,255.0
89.84,230.0
89.86,247.0
89.88,250.0
89.9,242.0
89.92,237.0
89.94,269.0
89.96,230.0
89.98,240.0
90.0,226.0
